#   1 NUMBER                 Running object number                                     
#   2 FLUX_ISO               Isophotal flux                                             [count]
#   3 FLUXERR_ISO            RMS error for isophotal flux                               [count]
#   4 FLUX_AUTO              Flux within a Kron-like elliptical aperture                [count]
#   5 FLUXERR_AUTO           RMS error for AUTO flux                                    [count]
#   6 KRON_RADIUS            Kron apertures in units of A or B                         
#   7 X_WORLD                Barycenter position along world x axis                     [deg]
#   8 Y_WORLD                Barycenter position along world y axis                     [deg]
#   9 A_IMAGE                Profile RMS along major axis                               [pixel]
#  10 B_IMAGE                Profile RMS along minor axis                               [pixel]
#  11 THETA_WORLD            Position angle (CCW/world-x)                               [deg]
#  12 FLAGS                  Extraction flags                                          
#  13 ELLIPTICITY            1 - B_IMAGE/A_IMAGE                                       
         1     5.312424     3.057055     43.38415     12.28032  9.56   1.7400953113e+02   4.5268269394e+01     0.289     0.289  45.07   0    0.000
         2     24.92016     6.311049     58.75944     14.99667  6.00   1.7401043856e+02   4.5268185903e+01     0.501     0.499  45.13   0    0.004
         3     3.069456     2.801835     36.31242     13.01182  9.82   1.7400637363e+02   4.5268102590e+01     0.289     0.289  45.23  16    0.000
         4     9.237692     3.458675     35.79397     8.723439  6.86   1.7401134670e+02   4.5268102767e+01     0.289     0.289  45.05   0    0.000
         5     17.87077     5.415327     15.77883      13.3729  7.10   1.7402361515e+02   4.5299954403e+01     0.584     0.329 -44.80   0    0.436
         6     6.712586     3.206093     23.26596     9.537415  7.12   1.7401339934e+02   4.5299547218e+01     0.289     0.289  36.64   0    0.000
         7     6.584898      3.19279     40.58474     10.12463  7.45   1.7404925689e+02   4.5299541464e+01     0.289     0.289  39.44   0    0.000
         8     6.818103     3.217044     51.40723      12.4962  8.52   1.7403764660e+02   4.5299489000e+01     0.289     0.289  36.38   0    0.000
         9     12.18592     4.442059     34.84536     11.30052  5.69   1.7400830713e+02   4.5298936015e+01     0.577     0.289   0.00   0    0.499
        10     21.01676      5.60563     67.19191     14.19514  6.45   1.7403437910e+02   4.5297750242e+01     0.579     0.332 -42.80   0    0.427
        11     19.68313     5.525758     54.94933     13.90468  7.00   1.7401258236e+02   4.5297009329e+01     0.575     0.334  43.84   0    0.419
        12      25.4844     5.865281     220.5462     20.63059  9.10   1.7402440279e+02   4.5295250995e+01     0.570     0.337  44.70   0    0.408
        13     2268.159     41.69486     3700.933     61.14212  5.92   1.7402350957e+02   4.5294648314e+01     1.536     1.300  85.10   0    0.153
        14     24.12447     5.262217     390.3731     23.95127  9.16   1.7403081117e+02   4.5293963766e+01     0.763     0.289 -45.01   0    0.622
        15     8.284719     3.365578     15.61886       11.502  7.78   1.7401095125e+02   4.5290047204e+01     0.289     0.289  41.01   0    0.000
        16      27.8729     6.465124      99.8257     18.57797  7.89   1.7401355731e+02   4.5289630574e+01     0.771     0.323 -33.07   0    0.582
        17     7.814108     3.318641     48.86528      12.4282  8.11   1.7401426790e+02   4.5289658325e+01     0.289     0.289  41.02   0    0.000
        18     2.260234     2.703848     47.96873     13.30708  9.81   1.7403574708e+02   4.5289600507e+01     0.289     0.289  42.82   0    0.000
        19     11.79843     4.412886     22.11442     6.161074  3.50   1.7401103025e+02   4.5289129515e+01     0.577     0.289 -90.00   0    0.500
        20     58.67792     8.254603     887.2246     35.39966  9.43   1.7402649140e+02   4.5286991886e+01     0.817     0.511  34.22   0    0.375
        21     5.531525     3.080853     26.44411     11.81155  8.14   1.7401008275e+02   4.5286991631e+01     0.289     0.289  42.09   0    0.000
        22     21.59763     5.640065     93.82145     18.46993  9.00   1.7401318648e+02   4.5286751697e+01     0.559     0.342  45.76   0    0.388
        23     158.4254     13.45617     687.4379      41.2352  8.88   1.7402718911e+02   4.5286203280e+01     1.230     0.696 -55.13   0    0.434
        24     236.2276     15.26226     2688.158     58.45697  9.40   1.7402563913e+02   4.5285503459e+01     1.810     0.553 -72.35   3    0.694
        25     1253.685     32.94481     6727.019     97.43463  9.00   1.7402511419e+02   4.5285941822e+01     2.665     1.264  39.35   2    0.526
        26     850.1419     26.89737     5229.039     78.75459  8.85   1.7402561948e+02   4.5285924456e+01     1.880     1.009 -68.51   3    0.463
        27     369.8877     18.89093     2600.782     62.11367  9.42   1.7402623080e+02   4.5285752315e+01     1.330     0.997  85.44   3    0.250
        28      44.3931     7.267138     406.3976     28.16539  9.30   1.7402656064e+02   4.5285637625e+01     0.939     0.363 -18.44   3    0.613
        29     7.205694     3.256957     25.88377     11.79573  7.93   1.7403377152e+02   4.5285878661e+01     0.289     0.289  44.00   0    0.000
        30     45.76239     7.715447     418.7617     30.00332 10.00   1.7402339778e+02   4.5285779630e+01     0.750     0.448 -72.23   0    0.402
        31     80.79607     10.01478     543.2089     32.97932  9.57   1.7402380729e+02   4.5285780970e+01     0.767     0.562 -46.42   0    0.268
        32     84.95901     9.862411     982.9879     38.91418  9.66   1.7402261671e+02   4.5285659032e+01     0.737     0.681  88.88   0    0.076
        33      17.2711     4.808536     30.29427     10.07233  4.67   1.7401146317e+02   4.5285713879e+01     0.577     0.289   0.00   0    0.500
        34     180.3845     13.35275     2950.461     59.78858  9.70   1.7402792788e+02   4.5285607312e+01     1.412     0.661   7.53   0    0.532
        35     15.45441     4.680907     48.62401     12.18587  6.83   1.7401410988e+02   4.5285577045e+01     0.576     0.289  90.00   0    0.499
        36     406.2484     19.81706      4015.31     69.37388  9.51   1.7402871032e+02   4.5285517633e+01     1.450     0.884 -14.51   0    0.390
        37     53.75972     7.297379     704.8973     27.98832  9.63   1.7402190147e+02   4.5285305842e+01     0.576     0.334 -45.63   0    0.419
        38     52.29497     7.992695     414.5789     27.95231  9.19   1.7403012725e+02   4.5285289634e+01     0.749     0.443 -19.64   0    0.409
        39     47.55579     7.792542     424.9749     30.07227  9.92   1.7402704461e+02   4.5285247783e+01     0.749     0.447  17.86   0    0.403
        40     123.6054     11.09195     1404.352     42.23286  9.57   1.7402948412e+02   4.5285438437e+01     0.738     0.688 -73.49   0    0.069
        41      95.2838     9.619896     1289.135     38.17371  9.81   1.7402167579e+02   4.5285070618e+01     0.757     0.443 -21.07   0    0.415
        42     37.76112     6.064818     628.2946     26.18866  9.44   1.7402200600e+02   4.5285075170e+01     0.577     0.289  89.99   0    0.500
        43     30925.96      148.202     78507.51     281.0932  7.83   1.7402360812e+02   4.5284446751e+01    11.000     2.169 -64.41   2    0.803
        44     7312.726     71.09904     27656.98     145.3652  8.36   1.7402426056e+02   4.5283536202e+01     1.778     1.185 -42.38   3    0.333
        45     12962.05     94.72166     44234.12     182.6808  7.92   1.7402467030e+02   4.5283202528e+01     2.171     1.561 -52.57   3    0.281
        46     3426.985     52.09751      9336.85     107.6719  8.43   1.7402621780e+02   4.5284664443e+01     2.069     1.992 -64.98   1    0.037
        47     8.526393      3.38943     32.15145     8.583126  6.67   1.7403629788e+02   4.5284822619e+01     0.289     0.289  45.00   0    0.000
        48     557.6263     22.60633      3148.78     64.67467  9.25   1.7402502696e+02   4.5284646860e+01     1.269     1.057 -25.65   0    0.167
        49     11.71056     3.689311     24.53455     6.736188  3.50   1.7403669262e+02   4.5284655871e+01     0.289     0.289  45.10   0    0.000
        50     13.80078      4.56163     31.94753      16.6335  9.22   1.7402777008e+02   4.5284738813e+01     0.576     0.289  89.99   0    0.499
        51     24.93021       5.8337     292.7052     23.06008  9.81   1.7402734729e+02   4.5284529678e+01     0.571     0.336 -42.46   0    0.411
        52      28.1702     6.480434       -14.42     21.41294  0.00   1.7402788966e+02   4.5284518298e+01     0.506     0.494 -45.50   0    0.025
        53      15.0635     4.652986     38.67931     8.498116  3.68   1.7400763511e+02   4.5284410455e+01     0.576     0.289 -90.00   0    0.499
        54     10.44403     3.573046     34.94122     9.937092  7.62   1.7403535020e+02   4.5284433919e+01     0.289     0.289  44.85   0    0.000
        55     86.73109     10.21041     461.5764     38.39682  9.57   1.7402738723e+02   4.5284317544e+01     1.219     0.570  29.07   0    0.532
        56     39.77473     7.452271     75.10042      13.7609  5.51   1.7403104615e+02   4.5284325706e+01     0.814     0.307 -58.42   0    0.623
        57     83.35659     8.543008      1432.07     35.69218  9.79   1.7402284870e+02   4.5284231362e+01     0.569     0.338  44.82   0    0.407
        58     361.9789     16.79128     6419.151     72.48794  9.54   1.7402441433e+02   4.5284132525e+01     0.856     0.665 -62.72   3    0.223
        59     653.2999     22.73299     10557.88     93.35915  9.86   1.7402475359e+02   4.5284015705e+01     1.340     0.705 -38.86   3    0.474
        60     869.7822     27.87813        16522     124.2936  9.64   1.7402556249e+02   4.5283995383e+01     1.871     1.396  -1.71   1    0.254
        61     168.3153     13.26853     1877.015     50.28138  9.72   1.7402669780e+02   4.5284037788e+01     1.018     0.720  42.73   0    0.293
        62     39.64209     7.446336     235.4329      28.2027  9.56   1.7402761130e+02   4.5284046145e+01     1.013     0.385  31.92   0    0.620
        63     266.0397     16.78783     2170.788     59.12693  9.71   1.7402619251e+02   4.5283901998e+01     1.512     0.781  86.84   1    0.484
        64     4.115917     2.923682     30.81953     11.93439  8.30   1.7401387297e+02   4.5284269440e+01     0.289     0.289  42.75   0    0.000
        65     15.16805      4.66047     61.18764     14.25844  7.29   1.7403424458e+02   4.5283962010e+01     0.577     0.289  89.98   0    0.500
        66     9.808933     3.513298     45.07816      10.2715  6.93   1.7401166210e+02   4.5283936104e+01     0.289     0.289  42.90   0    0.000
        67     97.43273     11.09031     846.3961     40.82914  9.69   1.7402807692e+02   4.5283749100e+01     0.960     0.671 -69.76   0    0.301
        68     7.819094     4.101301     47.09534     15.12389  7.91   1.7400637183e+02   4.5283685920e+01     0.577     0.289 -90.00   0    0.500
        69     332.0565     17.39617     5644.184     74.38414  9.85   1.7402281216e+02   4.5283579395e+01     1.166     0.857 -40.92   3    0.265
        70     350.2566      17.9043     8074.593     86.30919  9.76   1.7402319925e+02   4.5283423725e+01     1.510     0.791 -45.71   3    0.476
        71     107.0491     10.85347      1185.02     41.59636  9.53   1.7402698799e+02   4.5283559687e+01     1.101     0.510  55.93   0    0.537
        72     20.88883     5.053101     25.29122     6.330616  3.50   1.7403681136e+02   4.5283600291e+01     0.577     0.289  -0.02   0    0.500
        73     217.8296      15.0491     1813.592      49.5087  9.10   1.7402889688e+02   4.5283479582e+01     1.179     0.690  -3.60   0    0.414
        74     933.5905     27.49336     8108.385     88.98713  9.22   1.7402620972e+02   4.5283119299e+01     1.688     0.965 -59.28   3    0.428
        75     675.3134     23.67455     11255.83     99.91087  9.87   1.7402579141e+02   4.5283186260e+01     1.649     0.844  28.94   3    0.488
        76     22.62325     5.166247     316.7466     21.99889  9.54   1.7402729594e+02   4.5283241364e+01     0.577     0.289  89.99   0    0.500
        77     1243.416     32.48536     14032.92     113.3546  9.78   1.7402347453e+02   4.5282745736e+01     2.098     0.957 -68.49   3    0.544
        78     3464.178     51.27057     22874.87     140.9606  8.65   1.7402262651e+02   4.5282910196e+01     2.243     1.502   4.10   3    0.330
        79     4026.104     54.27014     17908.69     120.9155  8.27   1.7402282216e+02   4.5282508475e+01     1.634     1.310 -49.79   3    0.198
        80     2395.273     44.23454     27119.46     162.4707  9.64   1.7402596404e+02   4.5282596499e+01     3.189     1.536 -66.01   3    0.518
        81     1685.273     36.89822     28604.51      159.961  9.10   1.7402543012e+02   4.5282582954e+01     2.751     1.561 -69.04   3    0.433
        82     144.8185      12.1976     2838.987     57.72385  9.77   1.7402688151e+02   4.5282878381e+01     1.460     0.559  13.01   1    0.617
        83     18.37576     4.884511     300.4536     23.17181  9.44   1.7402796781e+02   4.5282906780e+01     0.764     0.289 -45.01   0    0.622
        84     9.485778     3.482502     31.04797     8.540164  6.79   1.7401079358e+02   4.5282824980e+01     0.289     0.289  43.23   0    0.000
        85     107.2362      10.0255     2590.175     48.87163 10.25   1.7402409245e+02   4.5282614170e+01     0.764     0.446  69.79   0    0.415
        86     939.9661     28.40013     10807.84     102.6202  9.51   1.7402486474e+02   4.5282333598e+01     1.584     1.273 -19.98   1    0.196
        87     6.783792     3.213487     6.111739      11.2231  8.82   1.7403621792e+02   4.5282378191e+01     0.289     0.289  45.70   0    0.000
        88     6.914559     3.227023     26.44846     8.358711  6.81   1.7401174110e+02   4.5281991660e+01     0.289     0.289  43.41   0    0.000
        89     7.840982     3.321339     44.53046     12.31139  8.30   1.7402026845e+02   4.5281991432e+01     0.289     0.289  43.53   0    0.000
        90     713.9478     24.45094     12333.28     105.4712  9.48   1.7402329661e+02   4.5281917114e+01     2.049     0.864 -43.69   3    0.579
        91      383.294     18.50916     5032.631     72.67741  9.57   1.7402291105e+02   4.5281851234e+01     1.200     0.975  17.34   3    0.188
        92     122.3863     11.05525     1782.636     45.44033  9.85   1.7402389955e+02   4.5281491402e+01     0.908     0.532 -45.42   0    0.414
        93     10.35811     3.565022     111.9171     14.01766  8.91   1.7403203285e+02   4.5281434520e+01     0.289     0.289  45.06   0    0.000
        94     27.89126     5.495646     468.0336     24.06252  9.47   1.7402492678e+02   4.5281351605e+01     0.577     0.289  89.99   0    0.500
        95      136.942     11.98042     1237.178     41.52591  9.53   1.7402428321e+02   4.5281190907e+01     1.225     0.449 -67.79   0    0.634
        96     5.717107     3.100867     67.27122     12.91243  8.63   1.7401379397e+02   4.5281213886e+01     0.289     0.289  43.55   0    0.000
        97     8.412232     3.378184     119.6104     14.19943  9.13   1.7403148003e+02   4.5281045722e+01     0.289     0.289  45.06   0    0.000
        98      11.2933     3.651416     32.12359     8.582044  6.01   1.7404529702e+02   4.5280598209e+01     0.289     0.289  48.84   0    0.000
        99     8.938391     3.429708     18.21762     6.415991  4.30   1.7401703104e+02   4.5279602705e+01     0.289     0.289  43.95   0    0.000
       100     7.663482     3.303477     25.17392     11.77565  8.06   1.7401371499e+02   4.5279324997e+01     0.289     0.289  43.97   0    0.000
       101     69.42437     9.322592     637.4778     34.76379  9.38   1.7402478257e+02   4.5279166853e+01     1.342     0.356   4.63   0    0.735
       102     10.01085     3.532403     103.6953     13.82077  8.22   1.7403708494e+02   4.5278822456e+01     0.289     0.289  46.74   0    0.000
       103      619.477      24.3497     2897.578     74.83201  8.23   1.7402437182e+02   4.5277744947e+01     1.785     1.648  35.37   0    0.077
       104     5.126573     3.036723     33.45557     9.887131  7.71   1.7404663698e+02   4.5276764490e+01     0.289     0.289  49.84   0    0.000
       105     14.62677     3.944002     46.27384     10.31023  7.07   1.7403439767e+02   4.5271211880e+01     0.289     0.289  46.97   0    0.000
       106     16.30436     4.083325     25.32317       6.7751  4.03   1.7403771319e+02   4.5271100100e+01     0.289     0.289  47.65   0    0.000
       107     27.12591     6.426495     75.26106     14.38337  5.28   1.7401175894e+02   4.5270270089e+01     1.040     0.285 -39.67   0    0.726
       108     9.994807     3.530889     55.93076     12.61628  8.29   1.7401047830e+02   4.5270158307e+01     0.289     0.289  45.01   0    0.000
       109     7.830154     3.320252     21.45504     11.66991  8.04   1.7401063622e+02   4.5269269421e+01     0.289     0.289  45.03   0    0.000
       110     5.137149     3.037884     34.76052     12.04397  8.91   1.7403692297e+02   4.5269211379e+01     0.289     0.289  47.49   0    0.000
       111     12.23339     4.445621     37.12027     11.86703  6.81   1.7404619672e+02   4.5268820174e+01     0.577     0.289  -0.02   0    0.500
       112     8.372475     3.374259     37.09532     10.00909  7.36   1.7400787339e+02   4.5268769333e+01     0.289     0.289  45.12   0    0.000
       113     6.658867     3.200503     29.04501     11.88473  8.01   1.7401213607e+02   4.5268602775e+01     0.289     0.289  45.00   0    0.000
       114     7.506428     3.287591     34.09223     9.908572  7.39   1.7400605783e+02   4.5268547016e+01     0.289     0.289  45.24   0    0.000
       115     4.155141     2.928151     24.41085     11.75403  8.03   1.7403756859e+02   4.5301711238e+01     0.289     0.289  34.34   0    0.000
       116     9.928659     3.524639     29.94012     8.496813  6.67   1.7403022253e+02   4.5300045916e+01     0.289     0.289  35.40   0    0.000
       117     8.091544     3.346391     22.55131     9.512404  6.99   1.7403740990e+02   4.5300044606e+01     0.289     0.289  35.85   0    0.000
