#   1 NUMBER                 Running object number                                     
#   2 FLUX_ISO               Isophotal flux                                             [count]
#   3 FLUXERR_ISO            RMS error for isophotal flux                               [count]
#   4 FLUX_AUTO              Flux within a Kron-like elliptical aperture                [count]
#   5 FLUXERR_AUTO           RMS error for AUTO flux                                    [count]
#   6 KRON_RADIUS            Kron apertures in units of A or B                         
#   7 X_WORLD                Barycenter position along world x axis                     [deg]
#   8 Y_WORLD                Barycenter position along world y axis                     [deg]
#   9 A_IMAGE                Profile RMS along major axis                               [pixel]
#  10 B_IMAGE                Profile RMS along minor axis                               [pixel]
#  11 THETA_WORLD            Position angle (CCW/world-x)                               [deg]
#  12 FLAGS                  Extraction flags                                          
#  13 ELLIPTICITY            1 - B_IMAGE/A_IMAGE                                       
         1     1199.841     160.3168     3625.079     404.5568  5.15   1.5286407466e+02  -4.9293699152e+00     1.702     0.374   6.97   0    0.780
         2     1110.267     160.0895     1924.142     263.7439  3.50   1.5287604951e+02  -4.9293364827e+00     1.187     0.477   0.09   0    0.598
         3     25435.06     302.9293     25031.54     410.7393  3.50   1.5264595780e+02  -4.9193324565e+00     1.610     0.760  -0.05   0    0.528
         4     1006.101     127.5606     1477.841     195.6796  3.50   1.5289298923e+02  -4.9173792969e+00     0.759     0.440 -19.54   0    0.421
         5    -436.3683     248.6262    -18231.31     506.4901  0.00   1.5261208298e+02  -4.9086174419e+00     2.209     0.975  89.90   2    0.559
         6    -1216.116     242.3309    -19158.38      566.955  0.00   1.5261351644e+02  -4.9088832705e+00     2.426     1.096 -82.67   2    0.548
         7    -28.67097     215.3166    -9541.525     427.0295  0.00   1.5262933984e+02  -4.9089020258e+00     2.157     0.670  87.94   2    0.689
         8     698.4318     126.5764     1580.063     225.2478  3.78   1.5284837494e+02  -4.9126064432e+00     0.757     0.449  19.12   0    0.408
         9     997.9236     127.5346     1721.719     386.9829  6.51   1.5286195007e+02  -4.9108711067e+00     0.986     0.362   5.33   0    0.633
        10     690.2305     194.0365    -4088.264     364.5576  0.00   1.5262811278e+02  -4.9094736908e+00     1.484     0.745 -38.08   2    0.498
        11     586.7479     216.4215     -930.996     381.1367  0.00   1.5262799914e+02  -4.9079603683e+00     1.633     0.778  42.23   2    0.524
        12     1090.401      127.829     2529.494     240.1874  4.06   1.5273937180e+02  -4.9051648360e+00     0.760     0.449 -18.98   0    0.409
        13     976.2599     139.0619     1885.896     225.7991  3.50   1.5286761365e+02  -4.9048996276e+00     1.335     0.335 -14.77   0    0.749
        14     1029.322     231.0402     116492.5     3535.672 23.55   1.5263555318e+02  -4.8944204923e+00     2.484     1.186  79.41  18    0.523
        15    -286.4379     314.4901    -21794.75     770.3401  0.00   1.5268437019e+02  -4.8943747306e+00     2.818     1.769 -61.81   2    0.372
        16     1196.454     224.5545    -8082.611     533.2438  0.00   1.5263686737e+02  -4.8950376927e+00     2.518     0.950  81.52   2    0.623
        17    -165.5183     254.7661    -17958.76     601.3466  0.00   1.5265135177e+02  -4.8945708419e+00     2.386     1.263 -67.86   2    0.471
        18    -335.9366     235.8675    -11694.32     487.8398  0.00   1.5265278810e+02  -4.8942525207e+00     2.205     0.892 -80.13   2    0.595
        19    -221.4141     200.4489    -840.2362     347.1876  0.00   1.5268307739e+02  -4.8950007124e+00     1.626     0.639 -65.16   2    0.607
        20     786.2469     126.8581     1423.347     195.5663  3.50   1.5282608333e+02  -4.8948265574e+00     0.761     0.446  18.51   0    0.415
        21     3508.223     277.5432     13098.27     842.1154  9.32   1.5287895772e+02  -4.8858227979e+00     2.910     0.289   0.01   0    0.901
        22     1685.562     170.8424     4022.937     430.8421  5.37   1.5286257131e+02  -4.8698476831e+00     1.474     0.428 -10.53   0    0.710
        23      1118.84     127.9194     12322.95     594.2153  9.14   1.5284173288e+02  -4.8699956317e+00     1.439     0.289   0.01   0    0.799
        24     2801.892     198.4111      2793.96     415.0455  5.38   1.5285037344e+02  -4.8683278266e+00     1.220     0.496   5.57   2    0.593
        25     1714.315     141.2029      7418.66     464.9757  7.24   1.5285165757e+02  -4.8532510976e+00     0.936     0.446  -2.03   0    0.523
        26     3870.584     215.4468     9522.446     587.0549  7.64   1.5285094147e+02  -4.8433281784e+00     1.959     0.289   0.01   0    0.853
        27     851.3517     138.6963      1199.88     224.5607  3.50   1.5285553187e+02  -4.8368012033e+00     0.964     0.413  18.85   0    0.571
        28     669.8137     126.4844     3238.814     561.0694  8.83   1.5286347523e+02  -4.8366597217e+00     1.406     0.289   0.01   0    0.795
        29     1252.321     160.4498     3669.841       487.73  6.26   1.5285443521e+02  -4.8352722404e+00     2.248     0.289   0.01   0    0.872
        30     1450.608     140.4416     4176.205     434.5576  6.82   1.5285601294e+02  -4.8314670869e+00     1.056     0.404  12.95   0    0.618
        31     2215.805     142.6393     14771.53     558.4014  8.95   1.5272940302e+02  -4.6742988463e+00     0.806     0.499   0.53   0    0.381
        32     2403.134     163.3394     4729.263     386.1478  6.39   1.5285549172e+02  -4.4484810822e+00     1.036     0.498  -0.95  24    0.520
        33     8305.278     201.8675     10630.58     276.8379  3.50   1.5287053104e+02  -4.4483275241e+00     1.949     0.422   7.18  27    0.783
        34     8549.083     202.3579     10003.92     258.5682  3.50   1.5287221736e+02  -4.4483272577e+00     1.639     0.488  -6.96  27    0.702
        35     38296.53     441.5259      36976.8     630.7628  3.50   1.5287888133e+02  -4.4483261673e+00     7.579     0.610  -1.07  27    0.920
        36     39774.03     398.8199     43645.67     540.3855  3.50   1.5288581310e+02  -4.4483444341e+00     6.556     0.487  -0.74  27    0.926
        37     40775.28     460.8841     46187.87     596.5721  3.50   1.5289529990e+02  -4.4484180425e+00     7.688     0.474   0.17  25    0.938
        38      2251.34     142.7405     2857.934     234.2355  4.19   1.5291444222e+02  -4.4484591041e+00     0.752     0.500  -0.70  24    0.335
        39     15624.83       272.98     16874.37     386.9263  3.50   1.5294709433e+02  -4.4491336124e+00     1.521     0.778  -2.52  16    0.488
        40    -73.97591     254.7661    -1509.713     474.9997  0.00   1.5293024949e+02  -4.4491261193e+00     2.623     0.686  -1.07  16    0.738
        41     741.1722     126.7136     3410.797     426.6573  7.63   1.5287106073e+02  -4.4497559297e+00     0.979     0.343   4.11   0    0.649
        42     6200.554     205.2562     6116.425     302.5123  3.50   1.5283433742e+02  -4.4543092844e+00     0.841     0.812  86.05   0    0.035
        43     5474.144     203.8125     6233.683     312.7148  3.50   1.5293870207e+02  -4.4584345383e+00     1.332     0.563  -3.46   0    0.578
        44     985.5964     127.4953     2213.957     302.3767  5.33   1.5291073558e+02  -4.4618239208e+00     0.765     0.445 -18.52   0    0.419
        45     1225.621     169.7445    -3314.343     506.4901  0.00   1.5288997320e+02  -4.4631258122e+00     1.472     0.447   2.67   0    0.696
        46     13459.25     232.8368     13220.94     316.8288  3.50   1.5291292698e+02  -4.4641073233e+00     0.904     0.832   2.22   0    0.080
        47     1400.366     280.0129    -16001.63     596.1847  0.00   1.5285403884e+02  -4.4653303273e+00     2.703     1.106 -81.47   2    0.591
        48    -103.8929      222.378    -39.71665     385.1701  0.00   1.5285546657e+02  -4.4649832351e+00     2.242     0.559  84.82   2    0.751
        49      1763.28     141.3438     2351.604     286.8298  4.87   1.5287931479e+02  -4.4643012231e+00     0.778     0.499   3.24   0    0.359
        50     1869.815     141.6498     2215.177     226.3911  3.50   1.5288167802e+02  -4.4643074446e+00     0.917     0.419 -19.39   0    0.544
        51     1121.815      237.793     2200.636      399.271  3.50   1.5288578345e+02  -4.4808405799e+00     1.979     0.666 -87.23   0    0.663
        52     1570.482     179.3999     6141.554     608.0309  9.54   1.5296444642e+02  -4.4799730395e+00     1.443     0.289   0.02   3    0.800
        53     1266.831     139.9087     2418.287     226.7556  3.50   1.5296575202e+02  -4.4800732484e+00     0.939     0.466  -0.67   3    0.503
        54     592.4275     126.2355     1321.963     210.5831  3.50   1.5286995859e+02  -4.4804816106e+00     0.750     0.444  68.31   0    0.408
        55      61.0131     136.3602    -917.7429      222.378  0.00   1.5288729309e+02  -4.4813454647e+00     1.040     0.412  75.81   0    0.604
        56     6229.852      197.644     61037.18     966.2184  8.25   1.5279283206e+02  -4.6962832578e+00     1.929     0.700  80.40   3    0.637
        57     4001.929      157.762     25081.53     610.5219  8.67   1.5279175987e+02  -4.6962728543e+00     1.198     0.404 -14.76   3    0.663
        58     1049.419     127.6986     1843.098     196.4369  3.50   1.5274310385e+02  -4.6957385054e+00     0.763     0.440  17.22   0    0.424
        59     1447.197     128.9586     4428.622     416.6434  6.94   1.5274554953e+02  -4.6958359685e+00     1.427     0.289  -0.00   0    0.798
        60     7023.466     206.8795     84514.88     875.9113  9.23   1.5272299575e+02  -4.6964818215e+00     1.222     0.686  44.77   1    0.439
        61     275.7817     157.9563    -1894.099     283.4775  0.00   1.5305061707e+02  -4.6966087472e+00     1.256     0.673   1.79  24    0.464
        62     2808.514     144.3185     23601.16     591.5219  8.93   1.5278129343e+02  -4.6972708173e+00     0.759     0.562 -42.12   0    0.259
        63      2.34797     124.3208    -924.5407      222.378  0.00   1.5304974204e+02  -4.6979050426e+00     0.873     0.455 -75.71   3    0.479
        64     99.36356     157.5017     111.2086     266.7914  3.50   1.5305076160e+02  -4.6983372877e+00     1.441     0.586  -2.57  26    0.593
        65     17678.79     297.5752     90048.64     1126.646  8.43   1.5272211855e+02  -4.6996055672e+00     1.694     1.027 -79.38   0    0.393
        66     30602.54     342.9323     114689.9     1073.951  7.86   1.5272442564e+02  -4.6994179738e+00     1.663     1.060  69.73   0    0.363
        67     1863.611      141.632     5694.058     476.6165  7.62   1.5275420333e+02  -4.6990392295e+00     0.792     0.499  -0.42   0    0.370
        68     2169.561     152.9677     11747.94      588.594  8.10   1.5276156182e+02  -4.6993701374e+00     0.987     0.544  30.37   0    0.449
        69     127074.4      568.116     834484.4     2169.972  8.51   1.5277280729e+02  -4.7044974991e+00     4.759     1.204 -69.79   3    0.747
        70     32568.94     291.8956     398726.6     1234.252  9.05   1.5277441225e+02  -4.7040428686e+00     1.402     1.091 -19.12   3    0.222
        71      77528.1     510.7239     590988.6      2249.66  8.66   1.5277445308e+02  -4.7008351905e+00     4.546     1.382  21.92   2    0.696
        72     39860.55     349.3404     288859.7     1287.086  8.53   1.5277219285e+02  -4.7021375789e+00     2.004     1.007  19.13   3    0.498
        73     299589.5       709.36      1235509     2176.719  7.87   1.5277249853e+02  -4.7098866158e+00     3.327     1.870  59.51   3    0.438
        74     343100.3      729.647     919331.7     1793.581  7.02   1.5277272505e+02  -4.7120489930e+00     3.312     1.558  37.25   3    0.530
        75     4719.576     202.3019     76614.66     1005.559  9.49   1.5276781299e+02  -4.7006854138e+00     2.548     0.425 -27.16   1    0.833
        76     62514.11     378.8759     202492.7     1031.521  7.77   1.5278057217e+02  -4.7016740436e+00     1.305     1.170  86.96   0    0.103
        77     1787.838      130.028     9521.851     498.8184  8.58   1.5273280685e+02  -4.7015612345e+00     0.747     0.450  18.25   0    0.397
        78     89399.45     428.8933     471411.7     1346.952  8.31   1.5277780310e+02  -4.7026963859e+00     1.663     1.295  44.99   3    0.221
        79     157754.4     565.5812     555174.9     1599.766  7.68   1.5277764474e+02  -4.7042015769e+00     3.037     1.213 -19.70   3    0.601
        80     3766.365     207.9467     11252.26     550.2448  7.87   1.5275337388e+02  -4.7035288177e+00     0.739     0.674  -0.06   0    0.088
        81     3093.999     134.0492     40314.22     592.5563  9.80   1.5276997260e+02  -4.7052249858e+00     0.761     0.446 -69.82   0    0.414
        82     17797.72     220.1543     213594.3     891.5686  9.25   1.5277685366e+02  -4.7056129173e+00     1.012     0.743 -45.47   1    0.266
        83     2593.695     154.0907     17638.34     632.9959  8.50   1.5275262071e+02  -4.7072582056e+00     1.067     0.508  21.84   0    0.524
        84     75144.71      454.267     175850.6     1169.147  6.94   1.5278056784e+02  -4.7086203376e+00     1.812     1.446  14.95   0    0.202
        85     2152.007     131.1615     24435.03     576.2218  9.59   1.5276551895e+02  -4.7082811580e+00     0.757     0.448 -70.98   0    0.408
        86     2878.247     154.8396     15743.42     583.4543  8.26   1.5276291959e+02  -4.7090927468e+00     1.388     0.352 -44.77   0    0.747
        87     37064.88     318.1529     458098.2     1395.966  8.71   1.5277597067e+02  -4.7096131585e+00     2.206     0.966 -47.41   3    0.562
        88     38809.51     334.5324       356923     1314.298  8.69   1.5277773047e+02  -4.7096648384e+00     1.782     1.111  71.90   3    0.376
        89     73472.41     459.5437     392424.4     1553.889  8.66   1.5277717898e+02  -4.7113383861e+00     2.097     1.366   7.44   3    0.349
        90     7719.598     248.8164     17627.58     675.5062  6.28   1.5274752246e+02  -4.7102561125e+00     1.228     0.975  48.99   0    0.205
        91     23834.74     300.7741     201250.3     1155.427  8.94   1.5276839911e+02  -4.7121221291e+00     1.637     0.914  84.62   0    0.442
        92     23548.93     267.7466     210811.7     904.0787  9.40   1.5277006701e+02  -4.7117830669e+00     1.013     0.742  75.86   1    0.267
        93     2725.652     132.9275     43029.62     599.5933  9.77   1.5277571720e+02  -4.7135593835e+00     0.995     0.344 -45.26   0    0.655
        94     6862.359     206.5627     60084.97       779.92  8.65   1.5277355675e+02  -4.7148674881e+00     0.911     0.866  -5.60   0    0.049
        95     22608.96     309.2733     164889.6     1241.107  8.70   1.5272567512e+02  -4.6957825509e+00     1.929     1.000  -8.95   3    0.482
        96      22579.6     342.4345     242319.7     1772.708  8.86   1.5272705066e+02  -4.6956385669e+00     3.270     1.181  -5.39   3    0.639
        97      217.771     215.9534    -437.8595     248.6262  0.00   1.5257632079e+02  -4.5706237580e+00     1.240     0.439  80.97   0    0.646
        98     334.7005     201.2065    -229.3692     260.7614  0.00   1.5256973082e+02  -4.5793273458e+00     1.193     0.476  -0.33   0    0.601
        99     947.7103     217.0984     1123.219     405.8607  3.50   1.5257486272e+02  -4.5702764864e+00     2.195     0.668 -87.24   0    0.695
       100     59.48927     124.5075    -7791.726     772.3436  0.00   1.5256972783e+02  -4.5778204009e+00     1.056     0.385  -4.71   3    0.635
       101     7845.142     200.9388     151657.2     1140.559  9.77   1.5272369133e+02  -4.6942983354e+00     2.375     0.534 -43.16   3    0.775
       102     2976.174     164.7594     20297.72     674.8249  8.66   1.5278246098e+02  -4.6937575185e+00     1.140     0.532 -38.66   0    0.533
       103     3895.827      176.023     25770.62     745.4203  8.71   1.5278821332e+02  -4.6937466296e+00     1.286     0.551 -47.55   0    0.572
       104     4761.858     194.6013     10058.76     546.5421  6.50   1.5273889670e+02  -4.6931636600e+00     0.995     0.730 -72.01   0    0.267
       105     3884.293     166.9849     37658.65     694.1658  9.05   1.5272815093e+02  -4.6886147582e+00     0.821     0.690   3.35   0    0.160
       106     33359.77     384.2668     161925.6     1563.179  7.88   1.5279402590e+02  -4.6901913839e+00     3.914     0.984 -20.92   2    0.749
       107     121939.4      585.924     323244.8     1719.865  6.90   1.5279376041e+02  -4.6931859376e+00     4.561     1.271  23.23   2    0.721
       108     54134.85      445.589     245689.8      1596.47  7.87   1.5279067407e+02  -4.6917984121e+00     3.413     1.140  83.66   2    0.666
       109     30083.76     293.7232     34235.27     372.9618  3.50   1.5275657407e+02  -4.6895863814e+00     1.054     0.924 -88.44   0    0.123
       110     5715.288     211.7223     47191.78     973.1638  8.70   1.5276449893e+02  -4.6916719178e+00     1.918     0.652  35.42   0    0.660
       111     2890.703     154.8722     19355.29     599.0068  8.74   1.5271818010e+02  -4.6918224925e+00     0.983     0.481   8.34   0    0.511
       112     22777.46     277.9254     176852.6     1083.052  8.51   1.5272487260e+02  -4.6870913582e+00     1.625     0.912  27.93   3    0.439
       113     1448.889     140.4367     5599.669     489.3358  7.58   1.5259646272e+02  -4.6870652767e+00     0.812     0.500  -0.70   0    0.384
       114     29824.21     400.3003     96807.79     1441.673  6.37   1.5279191529e+02  -4.6784801121e+00     2.770     1.825  35.30   0    0.341
       115     6932.757     199.0845     86797.02     857.3668  9.30   1.5272571118e+02  -4.6799722325e+00     1.263     0.621  25.16   0    0.509
       116     38699.39      412.973     416552.6     1907.769  8.83   1.5272254646e+02  -4.6918840412e+00     3.851     1.143 -80.40   3    0.703
       117     61078.46     488.0502     153462.4     1472.329  6.44   1.5278934071e+02  -4.6819061327e+00     2.658     1.899 -49.61   0    0.285
       118     98128.58     535.5927     408407.7     1717.528  7.70   1.5272306669e+02  -4.6879525558e+00     2.960     1.532 -62.11   2    0.483
       119     24675.63     335.8333     100169.1      982.544  8.44   1.5273135986e+02  -4.6857807885e+00     1.208     1.065  88.41   0    0.118
       120     10498.74     234.3007     124436.2     1012.572  9.48   1.5272644002e+02  -4.6817268425e+00     1.487     0.715  -3.78   0    0.519
       121     21595.07     354.5888     92299.37     898.6366  8.93   1.5273018476e+02  -4.6778598315e+00     1.156     0.827 -46.95   1    0.285
       122     55315.99     399.1617       129763     1029.825  6.95   1.5273756455e+02  -4.6752066275e+00     1.641     1.237  14.09   0    0.246
       123     3428.184      183.561     11232.17     603.7947  7.30   1.5273901610e+02  -4.6713840188e+00     1.060     0.642  25.22   0    0.394
